Time,Temp
[s],[K]
0,298.15
1,298.15
2,298.15
3.01,298.15
4.01,298.15
5.01,298.15
6.01,298.15
7.01,298.15
8.01,298.15
9.01,298.15
10.01,298.151
11.01,298.152
12.01,298.154
13.01,298.158
14.01,298.165
15.01,298.176
16.01,298.194
17.01,298.221
18,298.258
19,298.309
20,298.375
21,298.461
22,298.568
23,298.699
24,298.857
25,299.044
26,299.263
27,299.515
28,299.803
29,300.128
30,300.492
31,300.896
32,301.342
33,301.831
34,302.363
35,302.939
36,303.559
37,304.225
38,304.936
39,305.692
40,306.494
41,307.343
42,308.24
43,309.187
44.01,310.192
45.01,311.247
46.01,312.342
47.01,313.478
48.01,314.646
49.01,315.844
50.01,317.07
51.01,318.325
52.01,319.607
53.01,320.915
54.01,322.248
55.01,323.606
56.01,324.986
57.01,326.39
58.01,327.815
59.01,329.263
60.01,330.732
61.01,332.22
62.01,333.728
63.01,335.254
64.01,336.797
65.01,338.356
66.01,339.93
67.01,341.518
68.01,343.119
69.01,344.733
70.01,346.358
71.01,347.994
72.01,349.639
73,351.286
74,352.942
75,354.614
76,356.293
77,357.979
78,359.672
79,361.37
80,363.074
81,364.782
82,366.495
83,368.212
84,369.932
85,371.656
86,373.383
87,375.112
88,376.843
89,378.577
90,380.312
91,382.048
92,383.786
93,385.525
94,387.264
95,389.004
96,390.744
97,392.485
98,394.225
99,395.965
100,397.705
101,399.445
102,401.184
103,402.922
104,404.66
105,406.397
106,408.133
107,409.868
108,411.602
109,413.335
110,415.067
111,416.798
112,418.53
113,420.26
114,421.989
115,423.716
116,425.442
117,427.167
118,428.89
119,430.612
120,432.331
121,434.05
122,435.767
123,437.482
124,439.196
125,440.907
126,442.618
127,444.326
128,446.033
129,447.738
130,449.441
131,451.142
132,452.842
133,454.539
134,456.236
135,457.93
136,459.622
137,461.313
138,463.002
139,464.689
140,466.374
141,468.057
142,469.738
143,471.418
144,473.095
145,474.77
146,476.444
147,478.115
148,479.784
149,481.452
150,483.117
151,484.779
152,486.44
153,488.098
154,489.754
155,491.408
156,493.059
157,494.708
158,496.354
159,497.998
160.01,499.648
161.01,501.294
162.01,502.929
163.01,504.562
164.01,506.192
165.01,507.819
166.01,509.443
167.01,511.063
168.01,512.682
169.01,514.296
170.01,515.907
171.01,517.515
172.01,519.12
173.01,520.721
174.01,522.317
175.01,523.909
176.01,525.498
177.01,527.085
178.01,528.67
179.01,530.248
180.01,531.822
181.01,533.394
182.01,534.963
183.01,536.526
184.01,538.085
185.01,539.638
186.01,541.187
187.01,542.731
188.01,544.27
189.01,545.803
190.01,547.331
191.01,548.853
192.01,550.37
193.01,551.88
194.01,553.385
195.01,554.883
196.01,556.374
197.01,557.859
198.01,559.338
199.01,560.809
200.01,562.274
201.01,563.732
202.01,565.183
203.01,566.626
204.01,568.062
205.01,569.491
206.01,570.913
207.01,572.328
208.01,573.735
209.01,575.137
210.01,576.532
211.01,577.92
212.01,579.302
213.01,580.678
214.01,582.048
215.01,583.414
216.01,584.774
217.01,586.13
218.01,587.48
219.01,588.826
220.01,590.168
221.01,591.509
222.01,592.847
223.01,594.182
224.01,595.516
225.01,596.848
226.01,598.181
227.01,599.515
228.01,600.852
229.01,602.191
230.01,603.531
231.01,604.874
232.01,606.221
233.01,607.573
234.01,608.933
235.01,610.302
236.01,611.68
237.01,613.066
238.01,614.46
239.01,615.864
240.01,617.28
241.01,618.711
242.01,620.157
243.01,621.621
244.01,623.098
245.01,624.592
246.01,626.103
247.01,627.637
248.01,629.194
249.01,630.775
250.01,632.378
251.01,634.003
252.01,635.653
253.01,637.334
254.01,639.049
255.01,640.795
256.01,642.572
257.01,644.378
258.01,646.216
259.01,648.086
260.01,649.998
261.01,651.959
262.01,653.969
263.01,656.015
264.01,658.104
265.01,660.248
266.01,662.447
267.01,664.688
268.01,666.973
269.01,669.306
270.01,671.712
271.01,674.203
272.01,676.748
273.01,679.317
274.01,681.932
275.01,684.622
276.01,687.41
277.01,690.327
278.01,693.309
279.01,696.289
280.01,699.348
281.01,702.548
282.01,705.872
283.01,709.336
284.01,713.034
285.01,717.096
286.01,721.474
287.01,726.091
288.01,731.455
289.01,738.049
290.01,746.26
291.01,756.831
292.01,771.231
293.01,791.216
294.01,816.434
295.01,838.014
296.01,844.954
297.01,849.087
298.01,852.059
299.01,854.392
300.01,856.298
301.01,857.906
302.01,859.305
303.01,860.541
304.01,861.639
305.01,862.633
306.01,863.573
307.01,864.42
308.01,865.153
309.01,865.867
310.01,866.552
311.01,867.164
312.01,867.708
313.01,868.249
314.01,868.775
315.01,869.201
316.01,869.572
317.01,869.987
318.01,870.4
319.01,870.798
320.01,871.19
321.01,871.509
322.01,871.932
323.01,872.245
324.01,872.583
325.01,872.904
326.01,873.168
327.01,873.46
328.01,873.802
329.01,874.106
330.01,874.37
331.01,874.549
332.01,874.734
333.01,874.901
334.01,875.069
335.01,875.362
336.01,875.713
337.01,875.957
338.01,876.284
339.01,876.462
340.01,876.617
341.01,876.862
342.01,877.046
343.01,877.137
344.01,877.292
345.01,877.48
346.01,877.616
347.01,877.771
348.01,877.97
349.01,878.156
350.01,878.288
351.01,878.422
352.01,878.571
353.01,878.782
354.01,878.944
355.01,879.133
356.01,879.264
357.01,879.402
358.01,879.519
359.01,879.649
360.01,879.854
361.01,879.922
362.01,880.009
363.01,880.193
364.01,880.303
365.01,880.428
366.01,880.685
367.01,880.821
368.01,880.972
369.01,881.077
370.01,881.201
371.01,881.318
372.01,881.44
373.01,881.559
374.01,881.636
375.01,881.712
376.01,881.796
377.01,881.9
378.01,881.99
379.01,882.135
380.01,882.24
381.01,882.322
382.01,882.375
383.01,882.49
384.01,882.572
385.01,882.647
386.01,882.73
387.01,882.826
388.01,882.955
389.01,883.036
390.01,883.069
391.01,883.162
392.01,883.36
393.01,883.504
394.01,883.648
395.01,883.691
396.01,883.904
397.01,883.979
398.01,883.984
399.01,884.083
400.01,884.212
401.01,884.303
402.01,884.375
403.01,884.458
404.01,884.566
405.01,884.683
406.01,884.848
407.01,884.94
408.01,884.931
409.01,884.979
410.01,885.147
411.01,885.276
412.01,885.367
413.01,885.381
414.01,885.426
415.01,885.461
416.01,885.529
417.01,885.636
418.01,885.732
419.01,885.818
420.01,885.916
421.01,886.015
422.01,886.129
423.01,886.277
424.01,886.457
425.01,886.532
426.01,886.534
427.01,886.504
428.01,886.591
429.01,886.706
430.01,886.722
431.01,886.693
432.01,886.74
433.01,886.825
434.01,886.893
435.01,886.959
436.01,887.04
437.01,887.077
438.01,887.178
439.01,887.296
440.01,887.416
441.01,887.589
442.01,887.673
443.01,887.776
444.01,887.876
445.01,887.907
446.01,887.998
447.01,888.034
448.01,888.067
449.01,888.181
450.01,888.306
451.01,888.36
452.01,888.416
453.01,888.478
454.01,888.456
455.01,888.484
456.01,888.575
457.01,888.58
458.01,888.663
459.01,888.779
460.01,888.884
461.01,888.975
462.01,889.001
463.01,888.994
464.01,889.068
465.01,889.186
466.01,889.274
467.01,889.352
468.01,889.477
469.01,889.555
470.01,889.569
471.01,889.61
472.01,889.652
473.01,889.675
474.01,889.763
475.01,889.861
476.01,889.919
477.01,889.941
478.01,890.006
479.01,890.094
480.01,890.129
481.01,890.232
482.01,890.342
483.01,890.365
484.01,890.429
485.01,890.511
486.01,890.632
487.01,890.725
488.01,890.812
489.01,890.936
490.01,890.993
491.01,891.034
492.01,891.143
493.01,891.109
494.01,891.142
495.01,891.224
496.01,891.283
497.01,891.431
498.01,891.528
499.01,891.598
500,891.626
