Time,Temp
[s],[K]
0,298.15
1,298.15
2,298.15
3.01,298.15
4.01,298.15
5.01,298.15
6.01,298.15
7.01,298.15
8.01,298.151
9.01,298.153
10.01,298.157
11.01,298.166
12.01,298.183
13.01,298.211
14.01,298.254
15.01,298.317
16.01,298.406
17.01,298.526
18,298.68
19,298.874
20,299.114
21,299.404
22,299.746
23,300.145
24,300.603
25,301.123
26,301.707
27,302.356
28,303.071
29,303.853
30,304.704
31,305.623
32,306.611
33,307.668
34,308.8
35,310.009
36,311.293
37,312.646
38,314.056
39,315.512
40,317.011
41,318.553
42,320.136
43,321.758
44.01,323.425
45.01,325.127
46.01,326.855
47.01,328.616
48.01,330.41
49.01,332.233
50.01,334.085
51.01,335.962
52.01,337.864
53.01,339.788
54.01,341.732
55.01,343.694
56.01,345.672
57.01,347.666
58.01,349.672
59.01,351.69
60.01,353.718
61.01,355.755
62.01,357.799
63.01,359.85
64.01,361.905
65.01,363.965
66.01,366.028
67.01,368.093
68.01,370.159
69.01,372.225
70.01,374.291
71.01,376.356
72.01,378.418
73,380.468
74,382.514
75,384.567
76,386.616
77,388.66
78,390.699
79,392.733
80,394.761
81,396.782
82,398.797
83,400.805
84,402.806
85,404.799
86,406.784
87,408.763
88,410.732
89,412.694
90,414.648
91,416.593
92,418.53
93,420.458
94,422.377
95,424.287
96,426.188
97,428.08
98,429.965
99,431.842
100,433.71
101,435.569
102,437.419
103,439.26
104,441.091
105,442.913
106,444.726
107,446.529
108,448.323
109,450.108
110,451.883
111,453.649
112,455.405
113,457.153
114,458.89
115,460.618
116,462.337
117,464.046
118,465.745
119,467.436
120,469.117
121,470.788
122,472.45
123,474.102
124,475.745
125,477.378
126,479.002
127,480.616
128,482.22
129,483.815
130,485.4
131,486.976
132,488.542
133,490.098
134,491.645
135,493.181
136,494.706
137,496.223
138,497.728
139,499.223
140,500.709
141,502.183
142,503.649
143,505.104
144,506.548
145,507.984
146,509.407
147,510.821
148,512.225
149,513.618
150,515.001
151,516.372
152,517.733
153,519.084
154,520.423
155,521.752
156,523.071
157,524.377
158,525.673
159,526.959
160.01,528.238
161.01,529.507
162.01,530.76
163.01,531.999
164.01,533.228
165.01,534.447
166.01,535.653
167.01,536.848
168.01,538.033
169.01,539.205
170.01,540.367
171.01,541.517
172.01,542.657
173.01,543.784
174.01,544.901
175.01,546.007
176.01,547.101
177.01,548.183
178.01,549.256
179.01,550.317
180.01,551.367
181.01,552.406
182.01,553.436
183.01,554.453
184.01,555.461
185.01,556.459
186.01,557.446
187.01,558.423
188.01,559.39
189.01,560.349
190.01,561.297
191.01,562.235
192.01,563.164
193.01,564.086
194.01,564.997
195.01,565.9
196.01,566.795
197.01,567.683
198.01,568.562
199.01,569.433
200.01,570.297
201.01,571.155
202.01,572.006
203.01,572.849
204.01,573.687
205.01,574.52
206.01,575.348
207.01,576.17
208.01,576.987
209.01,577.799
210.01,578.608
211.01,579.412
212.01,580.213
213.01,581.01
214.01,581.804
215.01,582.595
216.01,583.383
217.01,584.169
218.01,584.953
219.01,585.736
220.01,586.516
221.01,587.295
222.01,588.073
223.01,588.851
224.01,589.629
225.01,590.407
226.01,591.185
227.01,591.964
228.01,592.745
229.01,593.528
230.01,594.313
231.01,595.099
232.01,595.888
233.01,596.68
234.01,597.474
235.01,598.271
236.01,599.072
237.01,599.877
238.01,600.686
239.01,601.499
240.01,602.317
241.01,603.14
242.01,603.968
243.01,604.804
244.01,605.646
245.01,606.492
246.01,607.342
247.01,608.198
248.01,609.06
249.01,609.929
250.01,610.803
251.01,611.686
252.01,612.579
253.01,613.481
254.01,614.394
255.01,615.317
256.01,616.249
257.01,617.192
258.01,618.143
259.01,619.105
260.01,620.076
261.01,621.056
262.01,622.047
263.01,623.051
264.01,624.067
265.01,625.1
266.01,626.143
267.01,627.199
268.01,628.268
269.01,629.351
270.01,630.45
271.01,631.562
272.01,632.689
273.01,633.832
274.01,634.993
275.01,636.172
276.01,637.37
277.01,638.583
278.01,639.814
279.01,641.064
280.01,642.335
281.01,643.628
282.01,644.938
283.01,646.27
284.01,647.623
285.01,649
286.01,650.402
287.01,651.826
288.01,653.273
289.01,654.744
290.01,656.242
291.01,657.766
292.01,659.314
293.01,660.885
294.01,662.484
295.01,664.11
296.01,665.767
297.01,667.452
298.01,669.163
299.01,670.906
300.01,672.681
301.01,674.489
302.01,676.32
303.01,678.185
304.01,680.088
305.01,682.036
306.01,684.019
307.01,686.043
308.01,688.116
309.01,690.244
310.01,692.408
311.01,694.625
312.01,696.909
313.01,699.263
314.01,701.704
315.01,704.26
316.01,706.946
317.01,709.785
318.01,712.866
319.01,716.187
320.01,719.85
321.01,724.06
322.01,728.719
323.01,734.453
324.01,741.264
325.01,750.091
326.01,761.539
327.01,777.876
328.01,800.302
329.01,830.822
330.01,843.051
331.01,848.526
332.01,852.176
333.01,854.916
334.01,857.099
335.01,858.896
336.01,860.422
337.01,861.751
338.01,862.938
339.01,863.991
340.01,864.956
341.01,865.826
342.01,866.604
343.01,867.299
344.01,867.938
345.01,868.511
346.01,868.981
347.01,869.478
348.01,869.968
349.01,870.435
350.01,870.891
351.01,871.366
352.01,871.855
353.01,872.335
354.01,872.687
355.01,873.026
356.01,873.362
357.01,873.684
358.01,873.936
359.01,874.158
360.01,874.48
361.01,874.862
362.01,875.195
363.01,875.487
364.01,875.731
365.01,875.954
366.01,876.145
367.01,876.291
368.01,876.502
369.01,876.723
370.01,876.944
371.01,877.148
372.01,877.272
373.01,877.459
374.01,877.748
375.01,877.966
376.01,878.185
377.01,878.39
378.01,878.547
379.01,878.695
380.01,878.855
381.01,879.058
382.01,879.215
383.01,879.336
384.01,879.453
385.01,879.605
386.01,879.783
387.01,879.967
388.01,880.168
389.01,880.352
390.01,880.478
391.01,880.54
392.01,880.633
393.01,880.811
394.01,881.029
395.01,881.136
396.01,881.215
397.01,881.347
398.01,881.394
399.01,881.463
400.01,881.624
401.01,881.828
402.01,881.988
403.01,882.103
404.01,882.265
405.01,882.406
406.01,882.528
407.01,882.643
408.01,882.728
409.01,882.759
410.01,882.785
411.01,882.867
412.01,883.021
413.01,883.216
414.01,883.318
415.01,883.383
416.01,883.512
417.01,883.664
418.01,883.787
419.01,883.881
420.01,883.931
421.01,883.974
422.01,884.034
423.01,884.07
424.01,884.168
425.01,884.33
426.01,884.498
427.01,884.671
428.01,884.804
429.01,884.922
430.01,885.031
431.01,885.074
432.01,885.099
433.01,885.222
434.01,885.311
435.01,885.377
436.01,885.449
437.01,885.548
438.01,885.621
439.01,885.729
440.01,885.713
441.01,885.69
442.01,885.779
443.01,885.931
444.01,886.115
445.01,886.279
446.01,886.415
447.01,886.435
448.01,886.461
449.01,886.569
450.01,886.614
451.01,886.666
452.01,886.797
453.01,886.889
454.01,886.999
455.01,887.093
456.01,887.179
457.01,887.209
458.01,887.183
459.01,887.215
460.01,887.331
461.01,887.348
462.01,887.396
463.01,887.565
464.01,887.72
465.01,887.771
466.01,887.722
467.01,887.736
468.01,887.845
469.01,887.95
470.01,888.047
471.01,888.158
472.01,888.294
473.01,888.403
474.01,888.426
475.01,888.34
476.01,888.328
477.01,888.437
478.01,888.659
479.01,888.826
480.01,888.91
481.01,888.984
482.01,889.035
483.01,889.082
484.01,889.138
485.01,889.218
486.01,889.303
487.01,889.354
488.01,889.316
489.01,889.425
490.01,889.553
491.01,889.489
492.01,889.474
493.01,889.627
494.01,889.789
495.01,889.845
496.01,889.899
497.01,890.011
498.01,890.168
499.01,890.234
500,890.256
,500
